"ITO_unprocesesd_4.spc - RawData"
"”g’· (nm)","T%"
350.00,66.332
351.00,66.667
352.00,67.182
353.00,67.771
354.00,68.364
355.00,68.952
356.00,69.472
357.00,70.022
358.00,70.577
359.00,71.150
360.00,71.737
361.00,72.412
362.00,73.092
363.00,73.784
364.00,74.422
365.00,75.062
366.00,75.691
367.00,76.279
368.00,76.854
369.00,77.398
370.00,78.028
371.00,78.623
372.00,79.400
373.00,80.106
374.00,80.834
375.00,81.392
376.00,81.932
377.00,82.480
378.00,83.003
379.00,83.601
380.00,84.192
381.00,84.805
382.00,85.390
383.00,86.007
384.00,86.656
385.00,87.272
386.00,87.849
387.00,88.396
388.00,88.890
389.00,89.386
390.00,89.830
391.00,90.230
392.00,90.566
393.00,90.831
394.00,91.050
395.00,91.193
396.00,91.302
397.00,91.386
398.00,91.514
399.00,91.575
400.00,91.606
401.00,91.530
402.00,91.446
403.00,91.344
404.00,91.183
405.00,91.015
406.00,90.819
407.00,90.641
408.00,90.518
409.00,90.378
410.00,90.232
411.00,89.986
412.00,89.753
413.00,89.509
414.00,89.307
415.00,89.094
416.00,88.874
417.00,88.605
418.00,88.304
419.00,88.069
420.00,87.845
421.00,87.638
422.00,87.360
423.00,87.089
424.00,86.816
425.00,86.548
426.00,86.267
427.00,85.991
428.00,85.754
429.00,85.503
430.00,85.322
431.00,85.116
432.00,84.921
433.00,84.634
434.00,84.348
435.00,84.089
436.00,83.882
437.00,83.664
438.00,83.431
439.00,83.182
440.00,82.961
441.00,82.796
442.00,82.701
443.00,82.634
444.00,82.562
445.00,82.462
446.00,82.369
447.00,82.295
448.00,82.247
449.00,82.205
450.00,82.153
451.00,82.110
452.00,82.088
453.00,82.116
454.00,82.149
455.00,82.226
456.00,82.297
457.00,82.380
458.00,82.455
459.00,82.525
460.00,82.592
461.00,82.663
462.00,82.759
463.00,82.869
464.00,82.964
465.00,83.067
466.00,83.155
467.00,83.283
468.00,83.477
469.00,83.696
470.00,83.934
471.00,84.115
472.00,84.318
473.00,84.502
474.00,84.707
475.00,84.924
476.00,85.137
477.00,85.324
478.00,85.496
479.00,85.661
480.00,85.820
481.00,85.975
482.00,86.091
483.00,86.205
484.00,86.353
485.00,86.514
486.00,86.680
487.00,86.802
488.00,86.943
489.00,87.090
490.00,87.225
491.00,87.378
492.00,87.516
493.00,87.666
494.00,87.788
495.00,87.948
496.00,88.127
497.00,88.326
498.00,88.504
499.00,88.680
500.00,88.855
501.00,89.093
502.00,89.353
503.00,89.642
504.00,89.861
505.00,90.042
506.00,90.197
507.00,90.327
508.00,90.473
509.00,90.620
510.00,90.777
511.00,90.941
512.00,91.091
513.00,91.262
514.00,91.408
515.00,91.567
516.00,91.723
517.00,91.888
518.00,92.023
519.00,92.121
520.00,92.232
521.00,92.345
522.00,92.541
523.00,92.709
524.00,92.886
525.00,93.011
526.00,93.127
527.00,93.226
528.00,93.288
529.00,93.332
530.00,93.345
531.00,93.361
532.00,93.392
533.00,93.443
534.00,93.497
535.00,93.539
536.00,93.562
537.00,93.595
538.00,93.589
539.00,93.594
540.00,93.595
541.00,93.617
542.00,93.649
543.00,93.662
544.00,93.688
545.00,93.705
546.00,93.718
547.00,93.722
548.00,93.726
549.00,93.724
550.00,93.696
551.00,93.649
552.00,93.593
553.00,93.605
554.00,93.624
555.00,93.654
556.00,93.619
557.00,93.571
558.00,93.515
559.00,93.457
560.00,93.405
561.00,93.323
562.00,93.241
563.00,93.173
564.00,93.168
565.00,93.183
566.00,93.235
567.00,93.295
568.00,93.333
569.00,93.379
570.00,93.410
571.00,93.465
572.00,93.497
573.00,93.487
574.00,93.430
575.00,93.318
576.00,93.165
577.00,92.998
578.00,92.768
579.00,92.519
580.00,92.211
581.00,91.923
582.00,91.632
583.00,91.361
584.00,91.050
585.00,90.752
586.00,90.470
587.00,90.278
588.00,90.090
589.00,89.935
590.00,89.760
591.00,89.631
592.00,89.513
593.00,89.430
594.00,89.334
595.00,89.252
596.00,89.157
597.00,89.060
598.00,88.961
599.00,88.849
600.00,88.752
601.00,88.652
602.00,88.529
603.00,88.405
604.00,88.286
605.00,88.212
606.00,88.123
607.00,88.029
608.00,87.933
609.00,87.861
610.00,87.822
611.00,87.790
612.00,87.757
613.00,87.709
614.00,87.685
615.00,87.655
616.00,87.631
617.00,87.555
618.00,87.495
619.00,87.401
620.00,87.307
621.00,87.202
622.00,87.110
623.00,87.026
624.00,86.937
625.00,86.846
626.00,86.780
627.00,86.645
628.00,86.510
629.00,86.372
630.00,86.298
631.00,86.232
632.00,86.194
633.00,86.161
634.00,86.152
635.00,86.159
636.00,86.185
637.00,86.195
638.00,86.156
639.00,86.132
640.00,86.096
641.00,86.057
642.00,85.989
643.00,85.940
644.00,85.892
645.00,85.859
646.00,85.800
647.00,85.764
648.00,85.729
649.00,85.691
650.00,85.633
651.00,85.574
652.00,85.530
653.00,85.478
654.00,85.407
655.00,85.362
656.00,85.282
657.00,85.192
658.00,85.084
659.00,85.002
660.00,84.946
661.00,84.879
662.00,84.834
663.00,84.797
664.00,84.766
665.00,84.748
666.00,84.723
667.00,84.716
668.00,84.736
669.00,84.738
670.00,84.729
671.00,84.690
672.00,84.675
673.00,84.678
674.00,84.707
675.00,84.660
676.00,84.619
677.00,84.561
678.00,84.580
679.00,84.600
680.00,84.629
681.00,84.659
682.00,84.673
683.00,84.673
684.00,84.670
685.00,84.666
686.00,84.644
687.00,84.619
688.00,84.606
689.00,84.636
690.00,84.596
691.00,84.565
692.00,84.512
693.00,84.577
694.00,84.661
695.00,84.795
696.00,84.891
697.00,84.969
698.00,85.000
699.00,85.025
700.00,85.043
701.00,85.051
702.00,85.041
703.00,84.929
704.00,84.814
705.00,84.714
706.00,84.689
707.00,84.663
708.00,84.638
709.00,84.638
710.00,84.647
711.00,84.671
712.00,84.683
713.00,84.704
714.00,84.650
715.00,84.632
716.00,84.621
717.00,84.665
718.00,84.693
719.00,84.730
720.00,84.748
721.00,84.741
722.00,84.724
723.00,84.726
724.00,84.735
725.00,84.668
726.00,84.604
727.00,84.516
728.00,84.519
729.00,84.496
730.00,84.506
731.00,84.485
732.00,84.515
733.00,84.531
734.00,84.497
735.00,84.433
736.00,84.387
737.00,84.369
738.00,84.359
739.00,84.364
740.00,84.424
741.00,84.476
742.00,84.538
743.00,84.533
744.00,84.526
745.00,84.465
746.00,84.433
747.00,84.418
748.00,84.379
749.00,84.378
750.00,84.371
751.00,84.318
752.00,84.243
753.00,84.152
754.00,84.169
755.00,84.167
756.00,84.173
757.00,84.148
758.00,84.141
759.00,84.065
760.00,84.012
761.00,83.932
762.00,83.973
763.00,83.979
764.00,84.015
765.00,84.011
766.00,84.050
767.00,84.010
768.00,83.969
769.00,83.916
770.00,83.915
771.00,83.936
772.00,83.960
773.00,84.001
774.00,83.927
775.00,83.850
776.00,83.778
777.00,83.790
778.00,83.806
779.00,83.813
780.00,83.721
781.00,83.657
782.00,83.592
783.00,83.634
784.00,83.648
785.00,83.657
786.00,83.683
787.00,83.632
788.00,83.599
789.00,83.533
790.00,83.520
791.00,83.492
792.00,83.474
793.00,83.414
794.00,83.358
795.00,83.318
796.00,83.308
797.00,83.281
798.00,83.196
799.00,83.091
800.00,83.012
