"ITO_040PER_5.spc - RawData"
"”g’· (nm)","T%"
350.00,54.812
351.00,55.433
352.00,56.339
353.00,57.216
354.00,58.051
355.00,58.823
356.00,59.529
357.00,60.180
358.00,60.809
359.00,61.401
360.00,61.968
361.00,62.523
362.00,63.038
363.00,63.533
364.00,63.977
365.00,64.382
366.00,64.723
367.00,65.005
368.00,65.241
369.00,65.448
370.00,65.651
371.00,65.826
372.00,65.760
373.00,65.630
374.00,65.487
375.00,65.530
376.00,65.584
377.00,65.635
378.00,65.700
379.00,65.764
380.00,65.863
381.00,65.989
382.00,66.146
383.00,66.311
384.00,66.511
385.00,66.693
386.00,66.867
387.00,67.011
388.00,67.172
389.00,67.308
390.00,67.429
391.00,67.538
392.00,67.671
393.00,67.783
394.00,67.863
395.00,67.933
396.00,68.001
397.00,68.094
398.00,68.177
399.00,68.279
400.00,68.360
401.00,68.426
402.00,68.485
403.00,68.557
404.00,68.608
405.00,68.639
406.00,68.671
407.00,68.705
408.00,68.779
409.00,68.820
410.00,68.874
411.00,68.901
412.00,68.971
413.00,69.060
414.00,69.153
415.00,69.261
416.00,69.366
417.00,69.486
418.00,69.605
419.00,69.711
420.00,69.849
421.00,69.982
422.00,70.111
423.00,70.242
424.00,70.347
425.00,70.490
426.00,70.606
427.00,70.739
428.00,70.895
429.00,71.046
430.00,71.202
431.00,71.351
432.00,71.502
433.00,71.657
434.00,71.798
435.00,71.942
436.00,72.093
437.00,72.209
438.00,72.317
439.00,72.403
440.00,72.495
441.00,72.592
442.00,72.671
443.00,72.772
444.00,72.888
445.00,73.016
446.00,73.120
447.00,73.221
448.00,73.340
449.00,73.474
450.00,73.594
451.00,73.709
452.00,73.841
453.00,73.960
454.00,74.114
455.00,74.251
456.00,74.417
457.00,74.571
458.00,74.750
459.00,74.923
460.00,75.082
461.00,75.220
462.00,75.380
463.00,75.533
464.00,75.697
465.00,75.867
466.00,76.051
467.00,76.237
468.00,76.422
469.00,76.592
470.00,76.778
471.00,76.936
472.00,77.097
473.00,77.241
474.00,77.380
475.00,77.541
476.00,77.678
477.00,77.829
478.00,77.957
479.00,78.097
480.00,78.227
481.00,78.381
482.00,78.510
483.00,78.640
484.00,78.759
485.00,78.898
486.00,79.039
487.00,79.146
488.00,79.279
489.00,79.398
490.00,79.544
491.00,79.664
492.00,79.783
493.00,79.896
494.00,79.984
495.00,80.101
496.00,80.206
497.00,80.322
498.00,80.404
499.00,80.506
500.00,80.601
501.00,80.709
502.00,80.831
503.00,80.970
504.00,81.110
505.00,81.226
506.00,81.360
507.00,81.475
508.00,81.598
509.00,81.686
510.00,81.797
511.00,81.910
512.00,82.024
513.00,82.135
514.00,82.210
515.00,82.297
516.00,82.382
517.00,82.481
518.00,82.574
519.00,82.635
520.00,82.703
521.00,82.770
522.00,82.866
523.00,82.943
524.00,83.002
525.00,83.081
526.00,83.160
527.00,83.243
528.00,83.298
529.00,83.369
530.00,83.406
531.00,83.450
532.00,83.492
533.00,83.568
534.00,83.608
535.00,83.637
536.00,83.674
537.00,83.741
538.00,83.815
539.00,83.876
540.00,83.951
541.00,84.014
542.00,84.069
543.00,84.114
544.00,84.173
545.00,84.217
546.00,84.275
547.00,84.306
548.00,84.361
549.00,84.382
550.00,84.380
551.00,84.370
552.00,84.384
553.00,84.424
554.00,84.467
555.00,84.473
556.00,84.485
557.00,84.499
558.00,84.532
559.00,84.582
560.00,84.623
561.00,84.645
562.00,84.639
563.00,84.625
564.00,84.635
565.00,84.648
566.00,84.655
567.00,84.642
568.00,84.601
569.00,84.586
570.00,84.558
571.00,84.588
572.00,84.574
573.00,84.576
574.00,84.552
575.00,84.550
576.00,84.544
577.00,84.552
578.00,84.551
579.00,84.568
580.00,84.548
581.00,84.544
582.00,84.529
583.00,84.544
584.00,84.533
585.00,84.517
586.00,84.484
587.00,84.469
588.00,84.440
589.00,84.406
590.00,84.388
591.00,84.381
592.00,84.369
593.00,84.338
594.00,84.305
595.00,84.278
596.00,84.271
597.00,84.282
598.00,84.319
599.00,84.358
600.00,84.397
601.00,84.446
602.00,84.468
603.00,84.512
604.00,84.532
605.00,84.607
606.00,84.677
607.00,84.735
608.00,84.786
609.00,84.815
610.00,84.896
611.00,84.961
612.00,85.046
613.00,85.111
614.00,85.183
615.00,85.244
616.00,85.292
617.00,85.319
618.00,85.351
619.00,85.384
620.00,85.417
621.00,85.445
622.00,85.456
623.00,85.455
624.00,85.449
625.00,85.444
626.00,85.451
627.00,85.442
628.00,85.422
629.00,85.394
630.00,85.350
631.00,85.324
632.00,85.308
633.00,85.288
634.00,85.276
635.00,85.250
636.00,85.231
637.00,85.187
638.00,85.131
639.00,85.092
640.00,85.044
641.00,85.022
642.00,84.988
643.00,84.990
644.00,84.971
645.00,84.965
646.00,84.929
647.00,84.901
648.00,84.887
649.00,84.868
650.00,84.855
651.00,84.840
652.00,84.834
653.00,84.794
654.00,84.729
655.00,84.672
656.00,84.645
657.00,84.607
658.00,84.553
659.00,84.481
660.00,84.432
661.00,84.383
662.00,84.349
663.00,84.323
664.00,84.317
665.00,84.327
666.00,84.309
667.00,84.292
668.00,84.278
669.00,84.295
670.00,84.307
671.00,84.305
672.00,84.302
673.00,84.315
674.00,84.357
675.00,84.361
676.00,84.375
677.00,84.363
678.00,84.385
679.00,84.388
680.00,84.394
681.00,84.415
682.00,84.422
683.00,84.428
684.00,84.423
685.00,84.430
686.00,84.408
687.00,84.389
688.00,84.392
689.00,84.432
690.00,84.429
691.00,84.417
692.00,84.340
693.00,84.259
694.00,84.124
695.00,84.057
696.00,84.007
697.00,84.003
698.00,83.969
699.00,83.952
700.00,83.964
701.00,84.006
702.00,84.090
703.00,84.146
704.00,84.208
705.00,84.254
706.00,84.286
707.00,84.280
708.00,84.238
709.00,84.175
710.00,84.126
711.00,84.076
712.00,84.038
713.00,83.989
714.00,83.921
715.00,83.865
716.00,83.823
717.00,83.807
718.00,83.798
719.00,83.773
720.00,83.759
721.00,83.720
722.00,83.678
723.00,83.651
724.00,83.616
725.00,83.593
726.00,83.528
727.00,83.491
728.00,83.482
729.00,83.473
730.00,83.457
731.00,83.434
732.00,83.415
733.00,83.404
734.00,83.372
735.00,83.341
736.00,83.323
737.00,83.287
738.00,83.250
739.00,83.213
740.00,83.192
741.00,83.199
742.00,83.212
743.00,83.237
744.00,83.235
745.00,83.186
746.00,83.134
747.00,83.092
748.00,83.062
749.00,83.042
750.00,83.029
751.00,83.004
752.00,82.973
753.00,82.935
754.00,82.939
755.00,82.948
756.00,82.955
757.00,82.922
758.00,82.868
759.00,82.839
760.00,82.810
761.00,82.791
762.00,82.754
763.00,82.758
764.00,82.745
765.00,82.728
766.00,82.708
767.00,82.687
768.00,82.680
769.00,82.666
770.00,82.641
771.00,82.630
772.00,82.615
773.00,82.634
774.00,82.577
775.00,82.542
776.00,82.528
777.00,82.576
778.00,82.585
779.00,82.543
780.00,82.477
781.00,82.433
782.00,82.410
783.00,82.421
784.00,82.420
785.00,82.436
786.00,82.428
787.00,82.416
788.00,82.400
789.00,82.379
790.00,82.355
791.00,82.343
792.00,82.350
793.00,82.335
794.00,82.319
795.00,82.275
796.00,82.300
797.00,82.282
798.00,82.258
799.00,82.213
800.00,82.198
