"ITO_020PER_2.spc - RawData"
"”g’· (nm)","T%"
350.00,63.724
351.00,64.408
352.00,65.409
353.00,66.377
354.00,67.276
355.00,68.107
356.00,68.837
357.00,69.512
358.00,70.148
359.00,70.749
360.00,71.309
361.00,71.857
362.00,72.340
363.00,72.804
364.00,73.200
365.00,73.568
366.00,73.881
367.00,74.125
368.00,74.320
369.00,74.464
370.00,74.596
371.00,74.691
372.00,74.761
373.00,74.799
374.00,74.825
375.00,74.824
376.00,74.807
377.00,74.789
378.00,74.800
379.00,74.831
380.00,74.872
381.00,74.951
382.00,75.050
383.00,75.180
384.00,75.340
385.00,75.504
386.00,75.677
387.00,75.835
388.00,75.962
389.00,76.091
390.00,76.216
391.00,76.349
392.00,76.477
393.00,76.572
394.00,76.668
395.00,76.718
396.00,76.775
397.00,76.818
398.00,76.915
399.00,76.987
400.00,77.068
401.00,77.107
402.00,77.168
403.00,77.223
404.00,77.259
405.00,77.291
406.00,77.314
407.00,77.361
408.00,77.433
409.00,77.497
410.00,77.561
411.00,77.592
412.00,77.652
413.00,77.714
414.00,77.798
415.00,77.854
416.00,77.967
417.00,78.061
418.00,78.179
419.00,78.287
420.00,78.416
421.00,78.561
422.00,78.673
423.00,78.795
424.00,78.911
425.00,79.038
426.00,79.146
427.00,79.260
428.00,79.401
429.00,79.539
430.00,79.697
431.00,79.831
432.00,79.962
433.00,80.056
434.00,80.160
435.00,80.265
436.00,80.386
437.00,80.470
438.00,80.550
439.00,80.618
440.00,80.695
441.00,80.804
442.00,80.935
443.00,81.091
444.00,81.242
445.00,81.374
446.00,81.488
447.00,81.604
448.00,81.747
449.00,81.905
450.00,82.049
451.00,82.180
452.00,82.319
453.00,82.475
454.00,82.628
455.00,82.788
456.00,82.937
457.00,83.083
458.00,83.225
459.00,83.375
460.00,83.509
461.00,83.644
462.00,83.786
463.00,83.962
464.00,84.106
465.00,84.258
466.00,84.409
467.00,84.595
468.00,84.812
469.00,84.994
470.00,85.209
471.00,85.391
472.00,85.589
473.00,85.743
474.00,85.900
475.00,86.074
476.00,86.237
477.00,86.380
478.00,86.504
479.00,86.627
480.00,86.721
481.00,86.837
482.00,86.922
483.00,87.015
484.00,87.119
485.00,87.236
486.00,87.372
487.00,87.471
488.00,87.566
489.00,87.661
490.00,87.754
491.00,87.876
492.00,87.980
493.00,88.087
494.00,88.174
495.00,88.286
496.00,88.394
497.00,88.506
498.00,88.580
499.00,88.655
500.00,88.721
501.00,88.831
502.00,88.949
503.00,89.088
504.00,89.190
505.00,89.284
506.00,89.370
507.00,89.463
508.00,89.559
509.00,89.658
510.00,89.767
511.00,89.874
512.00,89.969
513.00,90.058
514.00,90.156
515.00,90.248
516.00,90.341
517.00,90.436
518.00,90.510
519.00,90.560
520.00,90.614
521.00,90.690
522.00,90.811
523.00,90.899
524.00,90.995
525.00,91.067
526.00,91.146
527.00,91.187
528.00,91.233
529.00,91.285
530.00,91.335
531.00,91.379
532.00,91.429
533.00,91.474
534.00,91.509
535.00,91.527
536.00,91.565
537.00,91.624
538.00,91.675
539.00,91.729
540.00,91.780
541.00,91.830
542.00,91.880
543.00,91.908
544.00,91.944
545.00,91.979
546.00,92.033
547.00,92.080
548.00,92.130
549.00,92.158
550.00,92.170
551.00,92.193
552.00,92.218
553.00,92.297
554.00,92.337
555.00,92.367
556.00,92.373
557.00,92.401
558.00,92.422
559.00,92.441
560.00,92.437
561.00,92.426
562.00,92.393
563.00,92.402
564.00,92.460
565.00,92.525
566.00,92.588
567.00,92.643
568.00,92.676
569.00,92.722
570.00,92.758
571.00,92.832
572.00,92.873
573.00,92.883
574.00,92.877
575.00,92.865
576.00,92.862
577.00,92.857
578.00,92.804
579.00,92.735
580.00,92.621
581.00,92.541
582.00,92.452
583.00,92.385
584.00,92.297
585.00,92.207
586.00,92.118
587.00,92.065
588.00,92.006
589.00,91.952
590.00,91.893
591.00,91.880
592.00,91.864
593.00,91.843
594.00,91.800
595.00,91.766
596.00,91.731
597.00,91.698
598.00,91.678
599.00,91.671
600.00,91.677
601.00,91.677
602.00,91.661
603.00,91.637
604.00,91.625
605.00,91.657
606.00,91.674
607.00,91.703
608.00,91.699
609.00,91.729
610.00,91.789
611.00,91.855
612.00,91.911
613.00,91.954
614.00,92.005
615.00,92.053
616.00,92.069
617.00,92.096
618.00,92.109
619.00,92.114
620.00,92.115
621.00,92.117
622.00,92.102
623.00,92.090
624.00,92.064
625.00,92.055
626.00,92.019
627.00,91.970
628.00,91.918
629.00,91.863
630.00,91.822
631.00,91.798
632.00,91.802
633.00,91.788
634.00,91.772
635.00,91.752
636.00,91.756
637.00,91.744
638.00,91.707
639.00,91.691
640.00,91.659
641.00,91.638
642.00,91.617
643.00,91.605
644.00,91.567
645.00,91.534
646.00,91.472
647.00,91.449
648.00,91.408
649.00,91.383
650.00,91.336
651.00,91.285
652.00,91.253
653.00,91.195
654.00,91.149
655.00,91.095
656.00,91.073
657.00,91.019
658.00,90.985
659.00,90.901
660.00,90.853
661.00,90.779
662.00,90.735
663.00,90.691
664.00,90.663
665.00,90.667
666.00,90.656
667.00,90.648
668.00,90.642
669.00,90.631
670.00,90.622
671.00,90.581
672.00,90.568
673.00,90.565
674.00,90.602
675.00,90.579
676.00,90.541
677.00,90.492
678.00,90.483
679.00,90.500
680.00,90.511
681.00,90.526
682.00,90.506
683.00,90.486
684.00,90.477
685.00,90.477
686.00,90.440
687.00,90.400
688.00,90.370
689.00,90.377
690.00,90.323
691.00,90.269
692.00,90.199
693.00,90.194
694.00,90.188
695.00,90.228
696.00,90.253
697.00,90.255
698.00,90.213
699.00,90.178
700.00,90.173
701.00,90.159
702.00,90.154
703.00,90.097
704.00,90.040
705.00,89.979
706.00,89.951
707.00,89.923
708.00,89.880
709.00,89.833
710.00,89.790
711.00,89.774
712.00,89.756
713.00,89.727
714.00,89.673
715.00,89.641
716.00,89.615
717.00,89.601
718.00,89.573
719.00,89.561
720.00,89.535
721.00,89.494
722.00,89.455
723.00,89.438
724.00,89.432
725.00,89.407
726.00,89.357
727.00,89.282
728.00,89.241
729.00,89.208
730.00,89.214
731.00,89.164
732.00,89.142
733.00,89.119
734.00,89.126
735.00,89.096
736.00,89.029
737.00,88.950
738.00,88.911
739.00,88.906
740.00,88.916
741.00,88.888
742.00,88.903
743.00,88.906
744.00,88.913
745.00,88.845
746.00,88.788
747.00,88.739
748.00,88.704
749.00,88.690
750.00,88.692
751.00,88.643
752.00,88.597
753.00,88.525
754.00,88.515
755.00,88.514
756.00,88.484
757.00,88.474
758.00,88.424
759.00,88.397
760.00,88.349
761.00,88.301
762.00,88.308
763.00,88.341
764.00,88.344
765.00,88.323
766.00,88.279
767.00,88.240
768.00,88.184
769.00,88.144
770.00,88.116
771.00,88.123
772.00,88.132
773.00,88.149
774.00,88.103
775.00,88.034
776.00,87.995
777.00,87.994
778.00,88.007
779.00,87.989
780.00,87.924
781.00,87.874
782.00,87.834
783.00,87.842
784.00,87.843
785.00,87.856
786.00,87.859
787.00,87.841
788.00,87.809
789.00,87.789
790.00,87.770
791.00,87.757
792.00,87.741
793.00,87.713
794.00,87.723
795.00,87.723
796.00,87.722
797.00,87.676
798.00,87.634
799.00,87.583
800.00,87.547
