"ITO_unprocesesd_3.spc - RawData"
"”g’· (nm)","T%"
350.00,65.947
351.00,66.268
352.00,66.779
353.00,67.397
354.00,68.033
355.00,68.643
356.00,69.162
357.00,69.700
358.00,70.260
359.00,70.828
360.00,71.429
361.00,72.143
362.00,72.896
363.00,73.659
364.00,74.336
365.00,74.970
366.00,75.583
367.00,76.167
368.00,76.743
369.00,77.278
370.00,77.913
371.00,78.539
372.00,79.226
373.00,79.804
374.00,80.394
375.00,80.922
376.00,81.467
377.00,81.992
378.00,82.544
379.00,83.143
380.00,83.771
381.00,84.423
382.00,85.017
383.00,85.635
384.00,86.232
385.00,86.854
386.00,87.423
387.00,87.999
388.00,88.471
389.00,88.998
390.00,89.443
391.00,89.877
392.00,90.184
393.00,90.435
394.00,90.627
395.00,90.745
396.00,90.842
397.00,90.907
398.00,91.038
399.00,91.111
400.00,91.119
401.00,90.993
402.00,90.832
403.00,90.672
404.00,90.460
405.00,90.227
406.00,90.008
407.00,89.816
408.00,89.745
409.00,89.633
410.00,89.498
411.00,89.254
412.00,89.034
413.00,88.824
414.00,88.636
415.00,88.415
416.00,88.225
417.00,87.950
418.00,87.685
419.00,87.462
420.00,87.278
421.00,87.094
422.00,86.834
423.00,86.561
424.00,86.272
425.00,85.997
426.00,85.691
427.00,85.433
428.00,85.184
429.00,84.957
430.00,84.784
431.00,84.600
432.00,84.421
433.00,84.134
434.00,83.833
435.00,83.543
436.00,83.264
437.00,82.984
438.00,82.701
439.00,82.420
440.00,82.159
441.00,81.946
442.00,81.882
443.00,81.827
444.00,81.786
445.00,81.668
446.00,81.559
447.00,81.464
448.00,81.392
449.00,81.353
450.00,81.309
451.00,81.266
452.00,81.252
453.00,81.269
454.00,81.296
455.00,81.404
456.00,81.532
457.00,81.677
458.00,81.780
459.00,81.854
460.00,81.923
461.00,81.977
462.00,82.065
463.00,82.182
464.00,82.282
465.00,82.398
466.00,82.502
467.00,82.642
468.00,82.904
469.00,83.162
470.00,83.448
471.00,83.647
472.00,83.884
473.00,84.110
474.00,84.343
475.00,84.601
476.00,84.858
477.00,85.100
478.00,85.312
479.00,85.479
480.00,85.629
481.00,85.755
482.00,85.859
483.00,85.926
484.00,86.073
485.00,86.236
486.00,86.414
487.00,86.504
488.00,86.607
489.00,86.699
490.00,86.784
491.00,86.896
492.00,86.999
493.00,87.117
494.00,87.203
495.00,87.344
496.00,87.508
497.00,87.698
498.00,87.882
499.00,88.062
500.00,88.228
501.00,88.497
502.00,88.786
503.00,89.119
504.00,89.332
505.00,89.502
506.00,89.664
507.00,89.783
508.00,89.926
509.00,90.044
510.00,90.211
511.00,90.374
512.00,90.533
513.00,90.691
514.00,90.833
515.00,91.002
516.00,91.179
517.00,91.364
518.00,91.506
519.00,91.606
520.00,91.717
521.00,91.821
522.00,92.058
523.00,92.274
524.00,92.491
525.00,92.622
526.00,92.728
527.00,92.806
528.00,92.834
529.00,92.850
530.00,92.870
531.00,92.892
532.00,92.928
533.00,92.967
534.00,92.991
535.00,93.029
536.00,93.074
537.00,93.143
538.00,93.172
539.00,93.179
540.00,93.183
541.00,93.199
542.00,93.226
543.00,93.246
544.00,93.270
545.00,93.301
546.00,93.318
547.00,93.315
548.00,93.319
549.00,93.299
550.00,93.240
551.00,93.147
552.00,93.073
553.00,93.150
554.00,93.217
555.00,93.282
556.00,93.245
557.00,93.230
558.00,93.205
559.00,93.152
560.00,93.103
561.00,93.023
562.00,92.953
563.00,92.883
564.00,92.897
565.00,92.949
566.00,93.045
567.00,93.161
568.00,93.295
569.00,93.440
570.00,93.581
571.00,93.706
572.00,93.801
573.00,93.834
574.00,93.801
575.00,93.685
576.00,93.498
577.00,93.269
578.00,92.947
579.00,92.589
580.00,92.146
581.00,91.709
582.00,91.265
583.00,90.837
584.00,90.406
585.00,90.003
586.00,89.650
587.00,89.376
588.00,89.115
589.00,88.883
590.00,88.675
591.00,88.520
592.00,88.401
593.00,88.307
594.00,88.206
595.00,88.124
596.00,88.026
597.00,87.942
598.00,87.839
599.00,87.747
600.00,87.638
601.00,87.533
602.00,87.401
603.00,87.292
604.00,87.169
605.00,87.104
606.00,87.031
607.00,86.968
608.00,86.888
609.00,86.836
610.00,86.809
611.00,86.811
612.00,86.786
613.00,86.784
614.00,86.767
615.00,86.768
616.00,86.762
617.00,86.743
618.00,86.687
619.00,86.569
620.00,86.447
621.00,86.335
622.00,86.237
623.00,86.147
624.00,86.043
625.00,85.951
626.00,85.874
627.00,85.699
628.00,85.526
629.00,85.334
630.00,85.266
631.00,85.226
632.00,85.229
633.00,85.229
634.00,85.242
635.00,85.276
636.00,85.345
637.00,85.402
638.00,85.400
639.00,85.386
640.00,85.364
641.00,85.335
642.00,85.284
643.00,85.235
644.00,85.188
645.00,85.172
646.00,85.137
647.00,85.119
648.00,85.089
649.00,85.024
650.00,84.948
651.00,84.866
652.00,84.813
653.00,84.734
654.00,84.650
655.00,84.593
656.00,84.469
657.00,84.327
658.00,84.161
659.00,84.056
660.00,83.958
661.00,83.884
662.00,83.816
663.00,83.773
664.00,83.717
665.00,83.696
666.00,83.686
667.00,83.703
668.00,83.735
669.00,83.752
670.00,83.748
671.00,83.706
672.00,83.687
673.00,83.695
674.00,83.733
675.00,83.671
676.00,83.631
677.00,83.587
678.00,83.625
679.00,83.637
680.00,83.676
681.00,83.727
682.00,83.763
683.00,83.788
684.00,83.790
685.00,83.777
686.00,83.733
687.00,83.702
688.00,83.692
689.00,83.737
690.00,83.679
691.00,83.643
692.00,83.587
693.00,83.662
694.00,83.770
695.00,83.955
696.00,84.127
697.00,84.268
698.00,84.325
699.00,84.377
700.00,84.439
701.00,84.462
702.00,84.466
703.00,84.330
704.00,84.188
705.00,84.066
706.00,84.020
707.00,83.990
708.00,83.943
709.00,83.942
710.00,83.927
711.00,83.930
712.00,83.923
713.00,83.937
714.00,83.864
715.00,83.810
716.00,83.783
717.00,83.837
718.00,83.851
719.00,83.860
720.00,83.870
721.00,83.877
722.00,83.874
723.00,83.872
724.00,83.885
725.00,83.809
726.00,83.710
727.00,83.597
728.00,83.572
729.00,83.552
730.00,83.563
731.00,83.539
732.00,83.556
733.00,83.579
734.00,83.547
735.00,83.466
736.00,83.393
737.00,83.376
738.00,83.377
739.00,83.382
740.00,83.439
741.00,83.510
742.00,83.610
743.00,83.605
744.00,83.593
745.00,83.494
746.00,83.475
747.00,83.439
748.00,83.415
749.00,83.374
750.00,83.354
751.00,83.235
752.00,83.127
753.00,83.038
754.00,83.078
755.00,83.115
756.00,83.106
757.00,83.087
758.00,83.064
759.00,82.961
760.00,82.854
761.00,82.782
762.00,82.848
763.00,82.897
764.00,82.944
765.00,82.958
766.00,83.015
767.00,82.964
768.00,82.889
769.00,82.802
770.00,82.802
771.00,82.837
772.00,82.875
773.00,82.939
774.00,82.870
775.00,82.782
776.00,82.690
777.00,82.713
778.00,82.733
779.00,82.749
780.00,82.639
781.00,82.536
782.00,82.431
783.00,82.459
784.00,82.513
785.00,82.554
786.00,82.626
787.00,82.571
788.00,82.499
789.00,82.395
790.00,82.359
791.00,82.356
792.00,82.378
793.00,82.320
794.00,82.232
795.00,82.113
796.00,82.101
797.00,82.096
798.00,82.021
799.00,81.890
800.00,81.778
