"ITO_unprocesesd_2nd_1.spc - RawData"
"”g’· (nm)","T%"
350.00,66.806
351.00,67.126
352.00,67.633
353.00,68.273
354.00,68.925
355.00,69.568
356.00,70.077
357.00,70.610
358.00,71.161
359.00,71.765
360.00,72.394
361.00,73.125
362.00,73.879
363.00,74.634
364.00,75.307
365.00,75.927
366.00,76.549
367.00,77.137
368.00,77.716
369.00,78.281
370.00,78.924
371.00,79.526
372.00,80.344
373.00,81.101
374.00,81.882
375.00,82.423
376.00,82.955
377.00,83.486
378.00,84.028
379.00,84.650
380.00,85.262
381.00,85.922
382.00,86.536
383.00,87.207
384.00,87.868
385.00,88.520
386.00,89.101
387.00,89.647
388.00,90.109
389.00,90.648
390.00,91.121
391.00,91.555
392.00,91.853
393.00,92.114
394.00,92.302
395.00,92.401
396.00,92.451
397.00,92.483
398.00,92.600
399.00,92.654
400.00,92.666
401.00,92.518
402.00,92.340
403.00,92.158
404.00,91.938
405.00,91.699
406.00,91.433
407.00,91.205
408.00,91.095
409.00,90.989
410.00,90.851
411.00,90.588
412.00,90.333
413.00,90.095
414.00,89.900
415.00,89.676
416.00,89.434
417.00,89.124
418.00,88.806
419.00,88.587
420.00,88.391
421.00,88.207
422.00,87.926
423.00,87.636
424.00,87.323
425.00,87.035
426.00,86.741
427.00,86.477
428.00,86.220
429.00,85.959
430.00,85.784
431.00,85.582
432.00,85.372
433.00,85.041
434.00,84.725
435.00,84.418
436.00,84.154
437.00,83.843
438.00,83.549
439.00,83.265
440.00,83.009
441.00,82.795
442.00,82.694
443.00,82.649
444.00,82.623
445.00,82.501
446.00,82.393
447.00,82.291
448.00,82.224
449.00,82.167
450.00,82.125
451.00,82.082
452.00,82.087
453.00,82.094
454.00,82.132
455.00,82.218
456.00,82.351
457.00,82.475
458.00,82.566
459.00,82.643
460.00,82.722
461.00,82.809
462.00,82.894
463.00,83.023
464.00,83.123
465.00,83.258
466.00,83.381
467.00,83.526
468.00,83.787
469.00,84.050
470.00,84.368
471.00,84.574
472.00,84.822
473.00,85.059
474.00,85.319
475.00,85.595
476.00,85.850
477.00,86.084
478.00,86.279
479.00,86.444
480.00,86.579
481.00,86.716
482.00,86.812
483.00,86.881
484.00,87.014
485.00,87.159
486.00,87.332
487.00,87.418
488.00,87.518
489.00,87.607
490.00,87.675
491.00,87.766
492.00,87.851
493.00,87.960
494.00,88.049
495.00,88.213
496.00,88.390
497.00,88.593
498.00,88.755
499.00,88.939
500.00,89.116
501.00,89.382
502.00,89.672
503.00,89.995
504.00,90.223
505.00,90.420
506.00,90.568
507.00,90.701
508.00,90.826
509.00,90.947
510.00,91.103
511.00,91.240
512.00,91.416
513.00,91.566
514.00,91.720
515.00,91.876
516.00,92.059
517.00,92.265
518.00,92.439
519.00,92.543
520.00,92.620
521.00,92.708
522.00,92.933
523.00,93.168
524.00,93.384
525.00,93.521
526.00,93.635
527.00,93.720
528.00,93.762
529.00,93.785
530.00,93.780
531.00,93.776
532.00,93.795
533.00,93.836
534.00,93.873
535.00,93.894
536.00,93.895
537.00,93.897
538.00,93.877
539.00,93.873
540.00,93.885
541.00,93.893
542.00,93.910
543.00,93.914
544.00,93.928
545.00,93.948
546.00,93.947
547.00,93.931
548.00,93.927
549.00,93.912
550.00,93.870
551.00,93.788
552.00,93.718
553.00,93.782
554.00,93.854
555.00,93.910
556.00,93.885
557.00,93.859
558.00,93.831
559.00,93.761
560.00,93.684
561.00,93.599
562.00,93.527
563.00,93.475
564.00,93.489
565.00,93.536
566.00,93.630
567.00,93.762
568.00,93.907
569.00,94.078
570.00,94.236
571.00,94.383
572.00,94.501
573.00,94.548
574.00,94.499
575.00,94.356
576.00,94.144
577.00,93.911
578.00,93.563
579.00,93.163
580.00,92.690
581.00,92.216
582.00,91.736
583.00,91.273
584.00,90.808
585.00,90.372
586.00,89.974
587.00,89.684
588.00,89.419
589.00,89.186
590.00,88.954
591.00,88.785
592.00,88.652
593.00,88.561
594.00,88.459
595.00,88.365
596.00,88.273
597.00,88.192
598.00,88.102
599.00,88.004
600.00,87.890
601.00,87.792
602.00,87.662
603.00,87.559
604.00,87.432
605.00,87.353
606.00,87.255
607.00,87.179
608.00,87.089
609.00,87.024
610.00,87.003
611.00,87.003
612.00,86.993
613.00,86.979
614.00,86.976
615.00,86.978
616.00,86.966
617.00,86.912
618.00,86.848
619.00,86.726
620.00,86.621
621.00,86.510
622.00,86.423
623.00,86.340
624.00,86.244
625.00,86.159
626.00,86.066
627.00,85.878
628.00,85.678
629.00,85.497
630.00,85.430
631.00,85.389
632.00,85.385
633.00,85.386
634.00,85.414
635.00,85.461
636.00,85.519
637.00,85.546
638.00,85.542
639.00,85.533
640.00,85.520
641.00,85.463
642.00,85.412
643.00,85.370
644.00,85.344
645.00,85.312
646.00,85.269
647.00,85.211
648.00,85.166
649.00,85.095
650.00,85.035
651.00,84.954
652.00,84.889
653.00,84.806
654.00,84.725
655.00,84.668
656.00,84.524
657.00,84.400
658.00,84.240
659.00,84.151
660.00,84.045
661.00,83.949
662.00,83.883
663.00,83.826
664.00,83.789
665.00,83.759
666.00,83.742
667.00,83.739
668.00,83.762
669.00,83.769
670.00,83.770
671.00,83.744
672.00,83.735
673.00,83.748
674.00,83.795
675.00,83.729
676.00,83.679
677.00,83.600
678.00,83.643
679.00,83.656
680.00,83.698
681.00,83.753
682.00,83.789
683.00,83.816
684.00,83.822
685.00,83.818
686.00,83.768
687.00,83.719
688.00,83.709
689.00,83.764
690.00,83.700
691.00,83.649
692.00,83.605
693.00,83.707
694.00,83.838
695.00,84.018
696.00,84.176
697.00,84.313
698.00,84.369
699.00,84.438
700.00,84.494
701.00,84.518
702.00,84.509
703.00,84.349
704.00,84.178
705.00,84.019
706.00,83.967
707.00,83.945
708.00,83.903
709.00,83.891
710.00,83.882
711.00,83.892
712.00,83.903
713.00,83.904
714.00,83.830
715.00,83.783
716.00,83.741
717.00,83.796
718.00,83.808
719.00,83.832
720.00,83.823
721.00,83.823
722.00,83.813
723.00,83.826
724.00,83.838
725.00,83.775
726.00,83.678
727.00,83.555
728.00,83.522
729.00,83.506
730.00,83.510
731.00,83.508
732.00,83.522
733.00,83.571
734.00,83.522
735.00,83.446
736.00,83.339
737.00,83.314
738.00,83.300
739.00,83.317
740.00,83.375
741.00,83.468
742.00,83.568
743.00,83.563
744.00,83.532
745.00,83.436
746.00,83.398
747.00,83.361
748.00,83.328
749.00,83.301
750.00,83.280
751.00,83.172
752.00,83.094
753.00,82.994
754.00,83.022
755.00,83.026
756.00,83.042
757.00,83.018
758.00,83.008
759.00,82.878
760.00,82.799
761.00,82.709
762.00,82.761
763.00,82.771
764.00,82.823
765.00,82.868
766.00,82.919
767.00,82.869
768.00,82.782
769.00,82.717
770.00,82.707
771.00,82.750
772.00,82.791
773.00,82.871
774.00,82.782
775.00,82.713
776.00,82.603
777.00,82.638
778.00,82.659
779.00,82.679
780.00,82.554
781.00,82.433
782.00,82.329
783.00,82.381
784.00,82.424
785.00,82.497
786.00,82.562
787.00,82.487
788.00,82.392
789.00,82.270
790.00,82.259
791.00,82.244
792.00,82.267
793.00,82.224
794.00,82.145
795.00,82.043
796.00,82.021
797.00,82.030
798.00,81.999
799.00,81.877
800.00,81.750
