"ITO_unprocesesd_2nd_2.spc - RawData"
"”g’· (nm)","T%"
350.00,65.571
351.00,65.897
352.00,66.395
353.00,66.955
354.00,67.511
355.00,68.090
356.00,68.623
357.00,69.202
358.00,69.788
359.00,70.389
360.00,71.010
361.00,71.667
362.00,72.335
363.00,72.995
364.00,73.639
365.00,74.265
366.00,74.913
367.00,75.525
368.00,76.122
369.00,76.668
370.00,77.268
371.00,77.818
372.00,78.675
373.00,79.475
374.00,80.343
375.00,80.910
376.00,81.470
377.00,82.023
378.00,82.586
379.00,83.168
380.00,83.749
381.00,84.356
382.00,84.980
383.00,85.594
384.00,86.208
385.00,86.804
386.00,87.396
387.00,87.961
388.00,88.448
389.00,88.927
390.00,89.328
391.00,89.734
392.00,90.068
393.00,90.350
394.00,90.565
395.00,90.708
396.00,90.819
397.00,90.909
398.00,91.011
399.00,91.073
400.00,91.070
401.00,90.984
402.00,90.875
403.00,90.765
404.00,90.612
405.00,90.434
406.00,90.237
407.00,90.053
408.00,89.907
409.00,89.719
410.00,89.540
411.00,89.282
412.00,89.048
413.00,88.784
414.00,88.556
415.00,88.314
416.00,88.094
417.00,87.841
418.00,87.578
419.00,87.328
420.00,87.074
421.00,86.831
422.00,86.541
423.00,86.270
424.00,85.991
425.00,85.739
426.00,85.470
427.00,85.233
428.00,85.000
429.00,84.773
430.00,84.562
431.00,84.329
432.00,84.107
433.00,83.815
434.00,83.547
435.00,83.288
436.00,83.066
437.00,82.849
438.00,82.623
439.00,82.417
440.00,82.215
441.00,82.077
442.00,81.972
443.00,81.898
444.00,81.827
445.00,81.747
446.00,81.657
447.00,81.579
448.00,81.531
449.00,81.503
450.00,81.477
451.00,81.447
452.00,81.449
453.00,81.457
454.00,81.495
455.00,81.548
456.00,81.611
457.00,81.679
458.00,81.753
459.00,81.821
460.00,81.880
461.00,81.948
462.00,82.057
463.00,82.192
464.00,82.311
465.00,82.429
466.00,82.555
467.00,82.700
468.00,82.897
469.00,83.068
470.00,83.265
471.00,83.434
472.00,83.641
473.00,83.849
474.00,84.050
475.00,84.268
476.00,84.466
477.00,84.651
478.00,84.815
479.00,84.988
480.00,85.148
481.00,85.317
482.00,85.455
483.00,85.589
484.00,85.735
485.00,85.886
486.00,86.056
487.00,86.204
488.00,86.351
489.00,86.493
490.00,86.618
491.00,86.777
492.00,86.911
493.00,87.068
494.00,87.200
495.00,87.375
496.00,87.555
497.00,87.742
498.00,87.919
499.00,88.095
500.00,88.267
501.00,88.483
502.00,88.720
503.00,88.996
504.00,89.207
505.00,89.399
506.00,89.558
507.00,89.703
508.00,89.850
509.00,89.996
510.00,90.166
511.00,90.339
512.00,90.504
513.00,90.659
514.00,90.795
515.00,90.947
516.00,91.095
517.00,91.244
518.00,91.376
519.00,91.485
520.00,91.584
521.00,91.695
522.00,91.864
523.00,92.043
524.00,92.187
525.00,92.296
526.00,92.395
527.00,92.490
528.00,92.564
529.00,92.610
530.00,92.649
531.00,92.679
532.00,92.716
533.00,92.771
534.00,92.827
535.00,92.876
536.00,92.936
537.00,92.992
538.00,93.032
539.00,93.051
540.00,93.075
541.00,93.089
542.00,93.095
543.00,93.096
544.00,93.107
545.00,93.117
546.00,93.117
547.00,93.097
548.00,93.099
549.00,93.089
550.00,93.059
551.00,93.014
552.00,92.968
553.00,93.004
554.00,93.018
555.00,93.018
556.00,92.976
557.00,92.931
558.00,92.880
559.00,92.809
560.00,92.734
561.00,92.652
562.00,92.575
563.00,92.502
564.00,92.485
565.00,92.480
566.00,92.512
567.00,92.537
568.00,92.570
569.00,92.596
570.00,92.639
571.00,92.683
572.00,92.711
573.00,92.687
574.00,92.624
575.00,92.511
576.00,92.391
577.00,92.241
578.00,92.054
579.00,91.806
580.00,91.527
581.00,91.248
582.00,90.972
583.00,90.717
584.00,90.441
585.00,90.176
586.00,89.925
587.00,89.727
588.00,89.556
589.00,89.394
590.00,89.219
591.00,89.090
592.00,88.967
593.00,88.881
594.00,88.760
595.00,88.662
596.00,88.570
597.00,88.493
598.00,88.401
599.00,88.305
600.00,88.192
601.00,88.107
602.00,87.978
603.00,87.877
604.00,87.760
605.00,87.685
606.00,87.597
607.00,87.492
608.00,87.384
609.00,87.309
610.00,87.271
611.00,87.263
612.00,87.204
613.00,87.147
614.00,87.069
615.00,87.023
616.00,86.959
617.00,86.905
618.00,86.848
619.00,86.761
620.00,86.675
621.00,86.587
622.00,86.515
623.00,86.449
624.00,86.363
625.00,86.288
626.00,86.207
627.00,86.092
628.00,85.984
629.00,85.868
630.00,85.799
631.00,85.753
632.00,85.721
633.00,85.680
634.00,85.642
635.00,85.621
636.00,85.630
637.00,85.618
638.00,85.590
639.00,85.562
640.00,85.536
641.00,85.503
642.00,85.452
643.00,85.412
644.00,85.363
645.00,85.323
646.00,85.249
647.00,85.190
648.00,85.130
649.00,85.083
650.00,85.012
651.00,84.963
652.00,84.909
653.00,84.859
654.00,84.795
655.00,84.755
656.00,84.695
657.00,84.617
658.00,84.547
659.00,84.500
660.00,84.458
661.00,84.394
662.00,84.349
663.00,84.322
664.00,84.286
665.00,84.267
666.00,84.234
667.00,84.233
668.00,84.233
669.00,84.240
670.00,84.237
671.00,84.214
672.00,84.207
673.00,84.193
674.00,84.213
675.00,84.170
676.00,84.147
677.00,84.108
678.00,84.119
679.00,84.122
680.00,84.128
681.00,84.150
682.00,84.175
683.00,84.170
684.00,84.176
685.00,84.171
686.00,84.162
687.00,84.130
688.00,84.117
689.00,84.127
690.00,84.098
691.00,84.078
692.00,84.061
693.00,84.105
694.00,84.172
695.00,84.302
696.00,84.420
697.00,84.514
698.00,84.530
699.00,84.557
700.00,84.564
701.00,84.551
702.00,84.516
703.00,84.392
704.00,84.274
705.00,84.154
706.00,84.099
707.00,84.062
708.00,84.028
709.00,84.010
710.00,84.007
711.00,84.026
712.00,84.069
713.00,84.089
714.00,84.056
715.00,84.055
716.00,84.071
717.00,84.138
718.00,84.156
719.00,84.184
720.00,84.180
721.00,84.189
722.00,84.200
723.00,84.207
724.00,84.230
725.00,84.176
726.00,84.141
727.00,84.072
728.00,84.067
729.00,84.048
730.00,84.057
731.00,84.049
732.00,84.060
733.00,84.059
734.00,84.042
735.00,84.003
736.00,83.965
737.00,83.943
738.00,83.915
739.00,83.924
740.00,83.969
741.00,84.021
742.00,84.067
743.00,84.077
744.00,84.086
745.00,84.027
746.00,83.990
747.00,83.971
748.00,83.960
749.00,83.962
750.00,83.946
751.00,83.909
752.00,83.843
753.00,83.791
754.00,83.806
755.00,83.813
756.00,83.809
757.00,83.786
758.00,83.773
759.00,83.731
760.00,83.687
761.00,83.645
762.00,83.660
763.00,83.687
764.00,83.713
765.00,83.726
766.00,83.714
767.00,83.672
768.00,83.614
769.00,83.599
770.00,83.588
771.00,83.596
772.00,83.597
773.00,83.625
774.00,83.585
775.00,83.537
776.00,83.492
777.00,83.503
778.00,83.508
779.00,83.487
780.00,83.401
781.00,83.338
782.00,83.267
783.00,83.307
784.00,83.319
785.00,83.396
786.00,83.399
787.00,83.354
788.00,83.284
789.00,83.222
790.00,83.218
791.00,83.192
792.00,83.203
793.00,83.166
794.00,83.126
795.00,83.078
796.00,83.067
797.00,83.029
798.00,82.966
799.00,82.878
800.00,82.835
